Data File Name,2100 expert_High Sensitivity DNA Assay_DE54700632_2019-09-05_14-26-31_manual_integration.xad
Data File Path,E:\201905_exports
Date Created,"Thursday, September 05, 2019 9:26:30 PM"
Date Last Modified,"Tuesday, November 03, 2020 12:54:25 AM"
Version Created,B.02.08.SI648
Version Last Modified,B.02.08.SI648
 
Assay Name,High Sensitivity DNA
Assay Path,C:\Program Files\Agilent\2100 bioanalyzer\2100 expert\assays\dsDNA
Assay Title,High Sensitivity DNA Assay
Assay Version,1.03
 
Number of Samples Run,11
 
Sample Name,sample 5
Number of Events,2121
 
Time,Value
32,-0.0508728
32.05,-0.0508728
32.1,-0.0508728
32.15,-0.0508728
32.2,-0.0508728
32.25,-0.0508728
32.3,-0.0508728
32.35,-0.0508728
32.4,-6.118725E-02
32.45,-3.085107E-02
32.5,-1.071573E-02
32.55,-4.771303E-02
32.6,-2.312277E-02
32.65,0.122206
32.7,0.2003375
32.75,0.229645
32.8,0.3257867
32.85,0.3987912
32.9,0.356432
32.95,0.2888199
33,0.2707297
33.05,0.1153674
33.1,-0.1468548
33.15,-0.3629964
33.2,-0.4799209
33.25,-0.4959119
33.3,-0.3956866
33.35,-0.2221185
33.4,-3.088673E-02
33.45,8.279838E-02
33.5,0.1224443
33.55,0.1219135
33.6,9.865184E-02
33.65,6.632393E-02
33.7,5.237087E-03
33.75,4.882018E-03
33.8,-0.0407482
33.85,-0.1301442
33.9,-0.1322409
33.95,-0.1530074
34,-0.1710631
34.05,-0.1629477
34.1,-0.2080909
34.15,-0.2023804
34.2,-0.2316177
34.25,-0.1660102
34.3,2.338346E-02
34.35,7.281098E-02
34.4,0.1418278
34.45,0.1867655
34.5,0.2105468
34.55,0.2213281
34.6,0.3138266
34.65,0.2886318
34.7,0.318975
34.75,0.3280593
34.8,0.3650651
34.85,0.2376582
34.9,4.666507E-02
34.95,-0.1013302
35,-0.2066681
35.05,-0.3096523
35.1,-0.2765704
35.15,-0.1983736
35.2,0.1534768
35.25,0.3221738
35.3,0.5789055
35.35,0.6172548
35.4,0.5723289
35.45,0.4136866
35.5,0.2231017
35.55,0.122952
35.6,0.1982365
35.65,0.1894401
35.7,0.2227503
35.75,0.1513368
35.8,0.2012168
35.85,0.2340693
35.9,0.2759092
35.95,0.4268454
36,0.5697145
36.05,0.599394
36.1,0.491477
36.15,0.3268731
36.2,0.1234685
36.25,-7.643823E-02
36.3,-0.1878598
36.35,-0.1906901
36.4,-6.408346E-02
36.45,8.936417E-02
36.5,0.114833
36.55,3.463556E-02
36.6,-0.1244395
36.65,-0.1944265
36.7,-0.1108433
36.75,2.432174E-03
36.8,0.1272577
36.85,0.259299
36.9,0.3392552
36.95,0.3127899
37,0.2312483
37.05,0.1880383
37.1,0.2219168
37.15,0.3008543
37.2,0.3216081
37.25,0.3166337
37.3,0.3351996
37.35,0.3238437
37.4,0.3396709
37.45,0.4438518
37.5,0.4501201
37.55,0.3260288
37.6,0.1447606
37.65,0.1563507
37.7,0.2985063
37.75,0.388056
37.8,0.4411108
37.85,0.3967693
37.9,0.2667744
37.95,0.1496599
38,3.105209E-03
38.05,1.282583E-02
38.1,8.400138E-02
38.15,0.217917
38.2,0.452722
38.25,0.5020568
38.3,0.5619234
38.35,0.5669516
38.4,0.3946898
38.45,0.3524382
38.5,0.2285412
38.55,0.1775219
38.6,9.170288E-02
38.65,-4.122199E-02
38.7,-9.430559E-02
38.75,-7.655908E-02
38.8,-0.1024875
38.85,-0.0796684
38.9,-7.033782E-02
38.95,6.355982E-02
39,0.2167525
39.05,0.3341279
39.1,0.4087577
39.15,0.4766054
39.2,0.4267936
39.25,0.428329
39.3,0.4044507
39.35,0.3792367
39.4,0.1946736
39.45,7.450093E-02
39.5,1.539076E-02
39.55,4.333286E-02
39.6,2.380244E-02
39.65,6.073944E-02
39.7,3.313405E-02
39.75,0.1146621
39.8,0.2102036
39.85,0.3247404
39.9,0.2805331
39.95,0.1698961
40,-8.291632E-02
40.05,-0.1510383
40.1,-0.1317763
40.15,3.385795E-02
40.2,0.1563341
40.25,0.2059369
40.3,0.1287858
40.35,5.194601E-02
40.4,3.091127E-02
40.45,6.893899E-02
40.5,1.797054E-02
40.55,-6.354167E-02
40.6,-0.1068021
40.65,-0.1496243
40.7,-0.1966372
40.75,-0.1585867
40.8,-9.564318E-02
40.85,-0.1367752
40.9,-0.2311481
40.95,-0.1677516
41,3.168122E-02
41.05,0.1520887
41.1,0.168877
41.15,0.1740988
41.2,0.178691
41.25,0.1064415
41.3,3.177717E-02
41.35,4.633659E-02
41.4,6.468485E-02
41.45,0.0607821
41.5,9.196983E-02
41.55,0.1679101
41.6,0.3309686
41.65,0.4565389
41.7,0.4695106
41.75,0.346164
41.8,0.1571044
41.85,-3.504787E-02
41.9,-0.2023786
41.95,-0.2666932
42,-0.1432956
42.05,-6.743944E-02
42.1,4.476881E-02
42.15,0.1767829
42.2,0.2439519
42.25,0.1804408
42.3,-2.566681E-02
42.35,-0.256039
42.4,-0.2961364
42.45,-7.599187E-02
42.5,0.7761487
42.55,2.433049
42.6,5.437442
42.65,10.84184
42.7,19.82232
42.75,32.74904
42.8,49.20145
42.85,67.60507
42.9,85.24545
42.95,98.34135
43,104.503
43.05,101.943
43.1,91.27163
43.15,74.5981
43.2,55.57409
43.25,37.5666
43.3,23.12963
43.35,12.75277
43.4,6.518444
43.45,3.089724
43.5,1.532655
43.55,0.8846887
43.6,0.8890715
43.65,1.165764
43.7,1.368495
43.75,1.272655
43.8,1.148514
43.85,0.9248688
43.9,0.6873512
43.95,0.481152
44,0.410935
44.05,0.3625539
44.1,0.3156869
44.15,0.3742098
44.2,0.690894
44.25,0.9557322
44.3,0.9774538
44.35,0.904961
44.4,0.8471385
44.45,0.8018525
44.5,0.7920997
44.55,0.8710834
44.6,1.091611
44.65,1.121205
44.7,0.963836
44.75,0.8287057
44.8,0.7248538
44.85,0.6178488
44.9,0.5014505
44.95,0.49181
45,0.5704718
45.05,0.5977696
45.1,0.5707058
45.15,0.4800801
45.2,0.4771835
45.25,0.6040314
45.3,0.6605524
45.35,0.6936758
45.4,0.7122689
45.45,0.6888161
45.5,0.6741796
45.55,0.6524289
45.6,0.670006
45.65,0.6682699
45.7,0.5473486
45.75,0.4571696
45.8,0.4530463
45.85,0.427241
45.9,0.4873087
45.95,0.5196133
46,0.4449282
46.05,0.2976695
46.1,8.591172E-02
46.15,-0.1255644
46.2,-0.2276923
46.25,-0.1003113
46.3,0.162723
46.35,0.2574466
46.4,0.3131912
46.45,0.2811626
46.5,0.1933722
46.55,6.078877E-02
46.6,2.750625E-02
46.65,0.1651403
46.7,0.1317477
46.75,7.614822E-02
46.8,0.1006059
46.85,0.2262346
46.9,0.3046814
46.95,0.3676349
47,0.396362
47.05,0.3761238
47.1,0.221053
47.15,0.1350815
47.2,0.1343545
47.25,0.1372186
47.3,4.553119E-02
47.35,0.0785931
47.4,0.1503241
47.45,0.2638006
47.5,0.2992137
47.55,0.2792917
47.6,0.2099765
47.65,0.2108252
47.7,0.3668095
47.75,0.4671541
47.8,0.4961465
47.85,0.3826877
47.9,0.3103161
47.95,0.3155569
48,0.3915982
48.05,0.5570372
48.1,0.6439021
48.15,0.6428472
48.2,0.6309683
48.25,0.5566158
48.3,0.5215002
48.35,0.5198592
48.4,0.5608644
48.45,0.7183662
48.5,0.8388344
48.55,0.922257
48.6,0.8485842
48.65,0.7011616
48.7,0.6085875
48.75,0.5400346
48.8,0.4639593
48.85,0.418959
48.9,0.3367947
48.95,0.2348196
49,0.1336733
49.05,7.264938E-02
49.1,0.1886559
49.15,0.3906533
49.2,0.5117657
49.25,0.5694191
49.3,0.581578
49.35,0.5956902
49.4,0.6513608
49.45,0.7244051
49.5,0.7915239
49.55,0.8195227
49.6,0.85517
49.65,0.8487761
49.7,0.7227691
49.75,0.5161716
49.8,0.3111761
49.85,0.1197397
49.9,1.218424E-02
49.95,6.401922E-02
50,0.2752526
50.05,0.4373749
50.1,0.5487293
50.15,0.5542624
50.2,0.4033564
50.25,0.2048616
50.3,3.923076E-03
50.35,-0.1742892
50.4,-0.2304581
50.45,-0.2638226
50.5,-0.2072755
50.55,-0.1602231
50.6,-0.1436151
50.65,-9.306653E-02
50.7,0.0275575
50.75,0.2190611
50.8,0.4181952
50.85,0.4379165
50.9,0.4259912
50.95,0.2625686
51,2.703946E-02
51.05,-0.1310475
51.1,-7.560354E-02
51.15,0.1124276
51.2,0.1865045
51.25,0.2439759
51.3,0.2010835
51.35,0.3904079
51.4,0.4652911
51.45,0.4046063
51.5,0.261528
51.55,0.1060477
51.6,1.617157E-02
51.65,-3.883214E-02
51.7,0.1511977
51.75,0.4209916
51.8,0.3884931
51.85,0.2474761
51.9,3.810101E-02
51.95,-0.1675365
52,-0.3361344
52.05,-0.5329177
52.1,-0.4022741
52.15,-0.203056
52.2,3.318315E-02
52.25,0.3181213
52.3,0.452482
52.35,0.3269473
52.4,8.510251E-02
52.45,-0.1277701
52.5,-0.1296935
52.55,-0.1197747
52.6,-7.139434E-02
52.65,0.0649287
52.7,0.1173551
52.75,0.1353977
52.8,0.2391282
52.85,0.3769759
52.9,0.4140645
52.95,0.3196915
53,0.2992539
53.05,0.3482371
53.1,0.3757261
53.15,0.483775
53.2,0.6609239
53.25,0.6955531
53.3,0.6435382
53.35,0.6179835
53.4,0.607127
53.45,0.6240963
53.5,0.6896584
53.55,0.7763903
53.6,0.7694193
53.65,0.6530815
53.7,0.4821165
53.75,0.2936449
53.8,8.160093E-02
53.85,2.676093E-02
53.9,0.068918
53.95,0.1234585
54,0.1548873
54.05,0.2195489
54.1,0.2398882
54.15,0.2201185
54.2,0.129255
54.25,4.748408E-02
54.3,-1.424821E-02
54.35,-5.081832E-02
54.4,-0.1384364
54.45,-0.1214508
54.5,2.894659E-02
54.55,0.2210975
54.6,0.3117134
54.65,0.3295838
54.7,0.1773774
54.75,-2.312705E-02
54.8,-0.1891236
54.85,-0.3372038
54.9,-0.3607862
54.95,-0.1808297
55,1.628084E-02
55.05,0.1358465
55.1,0.1753465
55.15,0.1956235
55.2,0.0887762
55.25,-0.0354626
55.3,9.538602E-03
55.35,0.1719903
55.4,0.2732249
55.45,0.3783628
55.5,0.3265959
55.55,0.1731979
55.6,8.614653E-02
55.65,4.711859E-02
55.7,4.716219E-02
55.75,0.1442892
55.8,0.2122896
55.85,0.2166984
55.9,0.108953
55.95,0.1136726
56,0.2252443
56.05,0.2739076
56.1,0.2676093
56.15,0.2907154
56.2,0.2188687
56.25,0.2083088
56.3,0.2489003
56.35,0.3358212
56.4,0.3670742
56.45,0.3217966
56.5,0.3442356
56.55,0.4500085
56.6,0.4661852
56.65,0.4850478
56.7,0.4517552
56.75,0.3311295
56.8,0.1720807
56.85,5.763878E-02
56.9,3.201353E-02
56.95,6.651106E-02
57,0.174373
57.05,0.3702001
57.1,0.4641001
57.15,0.4814497
57.2,0.4580469
57.25,0.4005811
57.3,0.3449059
57.35,0.3062807
57.4,0.302003
57.45,0.30917
57.5,0.3000047
57.55,0.3213058
57.6,0.330503
57.65,0.2191464
57.7,1.831625E-02
57.75,-0.1704388
57.8,-0.2345047
57.85,-0.1406662
57.9,8.899086E-02
57.95,0.3146447
58,0.4242031
58.05,0.2939682
58.1,9.557022E-02
58.15,5.715713E-02
58.2,0.2237459
58.25,0.4194872
58.3,0.5900521
58.35,0.6515864
58.4,0.646583
58.45,0.5347961
58.5,0.4026736
58.55,0.3240205
58.6,0.2675914
58.65,0.2960806
58.7,0.4778633
58.75,0.6133594
58.8,0.7461952
58.85,0.8123686
58.9,0.734145
58.95,0.6077815
59,0.429785
59.05,0.2746247
59.1,0.1650639
59.15,0.1282312
59.2,0.3625858
59.25,0.6763957
59.3,0.9169533
59.35,1.045154
59.4,0.8769924
59.45,0.4990132
59.5,0.3848606
59.55,0.4750316
59.6,0.7008902
59.65,0.9401476
59.7,1.015929
59.75,0.9043584
59.8,0.8795125
59.85,0.9470308
59.9,1.083468
59.95,1.044654
60,0.9771445
60.05,0.8965814
60.1,0.91032
60.15,1.018415
60.2,1.171357
60.25,1.356827
60.3,1.474068
60.35,1.543399
60.4,1.531265
60.45,1.324292
60.5,1.157066
60.55,1.040892
60.6,1.159531
60.65,1.486855
60.7,1.771347
60.75,1.868329
60.8,1.809685
60.85,1.687768
60.9,1.697931
60.95,1.804981
61,2.062602
61.05,2.199856
61.1,2.253069
61.15,2.188918
61.2,2.069504
61.25,2.018394
61.3,2.090309
61.35,2.212887
61.4,2.40467
61.45,2.572237
61.5,2.621492
61.55,2.625284
61.6,2.61967
61.65,2.660942
61.7,2.695076
61.75,2.697855
61.8,2.840844
61.85,3.097084
61.9,3.282763
61.95,3.422071
62,3.47765
62.05,3.424944
62.1,3.441255
62.15,3.471996
62.2,3.529145
62.25,3.675292
62.3,3.816718
62.35,4.065355
62.4,4.438856
62.45,4.867811
62.5,5.171879
62.55,5.289548
62.6,5.100008
62.65,5.083542
62.7,5.031178
62.75,5.005561
62.8,5.007246
62.85,5.148785
62.9,5.203512
62.95,5.379786
63,5.567838
63.05,6.060613
63.1,6.211786
63.15,6.266168
63.2,6.31374
63.25,6.415297
63.3,6.550953
63.35,6.760609
63.4,6.899508
63.45,6.964143
63.5,6.73346
63.55,6.701074
63.6,6.887353
63.65,7.014806
63.7,7.011914
63.75,6.95961
63.8,7.1215
63.85,7.437393
63.9,7.595868
63.95,8.272197
64,8.750516
64.05,8.999621
64.1,9.246264
64.15,9.367991
64.2,9.326792
64.25,9.060791
64.3,8.739042
64.35,8.87078
64.4,9.063851
64.45,9.438409
64.5,9.705508
64.55,9.733212
64.6,9.897982
64.65,10.28559
64.7,10.74379
64.75,11.16429
64.8,11.39702
64.85,11.25048
64.9,10.99612
64.95,10.90269
65,11.1326
65.05,11.5056
65.1,11.9348
65.15,12.38957
65.2,12.82117
65.25,13.0738
65.3,13.27315
65.35,13.40662
65.4,13.60404
65.45,13.8759
65.5,14.11778
65.55,14.30767
65.6,14.24942
65.65,14.01503
65.7,13.94709
65.75,14.13057
65.8,14.51607
65.85,15.0103
65.9,15.53488
65.95,15.94897
66,15.99078
66.05,16.03192
66.1,16.34897
66.15,16.45976
66.2,16.3937
66.25,16.54531
66.3,17.05839
66.35,17.48031
66.4,17.86454
66.45,18.2196
66.5,18.67813
66.55,18.87208
66.6,18.94506
66.65,18.86928
66.7,18.84787
66.75,18.77793
66.8,18.90615
66.85,19.02447
66.9,19.55958
66.95,19.85372
67,20.1451
67.05,20.47365
67.1,20.8751
67.15,21.15504
67.2,21.2989
67.25,21.30978
67.3,21.47603
67.35,21.77711
67.4,22.3393
67.45,22.71452
67.5,23.13478
67.55,23.3685
67.6,23.19165
67.65,23.33389
67.7,23.67235
67.75,24.06356
67.8,24.32195
67.85,24.81067
67.9,25.48437
67.95,25.67504
68,25.91367
68.05,26.29091
68.1,26.34649
68.15,26.19604
68.2,26.54207
68.25,27.14467
68.3,27.47769
68.35,27.67514
68.4,27.71829
68.45,27.59252
68.5,28.05379
68.55,28.38894
68.6,29.0221
68.65,29.43645
68.7,29.57721
68.75,29.81289
68.8,30.02801
68.85,30.28842
68.9,30.63167
68.95,30.71096
69,30.85321
69.05,30.98909
69.1,31.11602
69.15,31.5627
69.2,32.10056
69.25,32.35889
69.3,32.73751
69.35,33.37409
69.4,34.00632
69.45,34.19469
69.5,34.31453
69.55,34.80389
69.6,35.33432
69.65,35.56574
69.7,35.6887
69.75,35.8165
69.8,35.8345
69.85,35.78975
69.9,36.00866
69.95,36.39894
70,36.73946
70.05,37.29227
70.1,37.91226
70.15,38.64315
70.2,39.46564
70.25,39.84802
70.3,39.75489
70.35,39.24703
70.4,38.8045
70.45,38.89108
70.5,39.15849
70.55,39.91853
70.6,40.78664
70.65,41.50658
70.7,42.04491
70.75,42.71342
70.8,42.94624
70.85,43.02926
70.9,42.97565
70.95,43.11142
71,43.31748
71.05,43.32435
71.1,43.56103
71.15,44.18412
71.2,44.12465
71.25,44.56673
71.3,45.2051
71.35,45.37062
71.4,45.61959
71.45,46.0833
71.5,46.5603
71.55,47.22277
71.6,47.43983
71.65,47.83445
71.7,48.10225
71.75,48.4133
71.8,49.08039
71.85,50.00803
71.9,50.40597
71.95,51.17797
72,51.08868
72.05,51.66304
72.1,51.97631
72.15,52.60849
72.2,52.77139
72.25,52.83753
72.3,52.47454
72.35,52.78873
72.4,52.98736
72.45,53.40498
72.5,53.56997
72.55,53.85217
72.6,54.17359
72.65,54.44499
72.7,55.16355
72.75,56.12627
72.8,56.51248
72.85,56.89079
72.9,57.17574
72.95,57.61179
73,58.42033
73.05,59.08869
73.1,59.26247
73.15,59.18523
73.2,58.66698
73.25,58.28234
73.3,58.4437
73.35,59.35123
73.4,60.3482
73.45,60.78139
73.5,60.58937
73.55,60.64127
73.6,60.82942
73.65,61.42006
73.7,62.64311
73.75,64.00043
73.8,64.89363
73.85,65.02451
73.9,64.48708
73.95,63.98183
74,63.74201
74.05,63.85845
74.1,64.85641
74.15,65.80312
74.2,66.35086
74.25,66.76984
74.3,66.60549
74.35,66.58685
74.4,66.96909
74.45,67.88829
74.5,68.98403
74.55,69.27972
74.6,69.44158
74.65,69.56832
74.7,69.46247
74.75,69.54296
74.8,69.84615
74.85,70.79028
74.9,71.55616
74.95,71.8896
75,72.52419
75.05,73.29084
75.1,74.00114
75.15,74.18523
75.2,74.28147
75.25,74.52685
75.3,74.3553
75.35,74.25151
75.4,74.58665
75.45,75.39982
75.5,76.08122
75.55,76.59394
75.6,76.99308
75.65,77.28792
75.7,77.74113
75.75,77.94367
75.8,78.51114
75.85,79.26073
75.9,79.19545
75.95,79.34666
76,79.66638
76.05,80.35613
76.1,80.8755
76.15,81.01275
76.2,82.02085
76.25,82.53931
76.3,82.56837
76.35,83.19759
76.4,83.03613
76.45,83.26029
76.5,83.39503
76.55,84.64186
76.6,86.24548
76.65,86.96642
76.7,87.32241
76.75,87.61934
76.8,87.20484
76.85,87.22291
76.9,87.46478
76.95,88.28735
77,88.47372
77.05,88.56006
77.1,88.49235
77.15,88.73071
77.2,89.41962
77.25,90.25541
77.3,90.94654
77.35,91.53017
77.4,91.73701
77.45,92.00256
77.5,92.54443
77.55,93.40115
77.6,94.27749
77.65,94.43597
77.7,94.26385
77.75,93.94397
77.8,93.79041
77.85,93.99132
77.9,94.7701
77.95,96.03134
78,97.02382
78.05,97.85686
78.1,98.86047
78.15,99.69473
78.2,100.0173
78.25,100.0545
78.3,100.2807
78.35,100.5108
78.4,100.61
78.45,100.9297
78.5,101.151
78.55,101.2004
78.6,101.3637
78.65,101.388
78.7,101.7603
78.75,102.0381
78.8,102.1727
78.85,102.9276
78.9,103.9516
78.95,105.3741
79,106.5211
79.05,106.4695
79.1,106.9349
79.15,107.0336
79.2,106.8258
79.25,107.321
79.3,108.2064
79.35,108.6232
79.4,109.0342
79.45,109.6066
79.5,110.1758
79.55,110.2473
79.6,110.7646
79.65,111.3494
79.7,111.4866
79.75,112.0449
79.8,113.4572
79.85,114.0995
79.9,113.8515
79.95,114.3104
80,115.049
80.05,114.7791
80.1,115.0786
80.15,115.8968
80.2,116.2208
80.25,116.2191
80.3,116.6776
80.35,117.6681
80.4,118.365
80.45,119.043
80.5,120.052
80.55,121.0226
80.6,121.8635
80.65,122.0034
80.7,122.702
80.75,122.9846
80.8,123.7388
80.85,124.5638
80.9,125.1555
80.95,125.5725
81,125.0139
81.05,124.7399
81.1,124.9507
81.15,125.0311
81.2,125.383
81.25,126.0519
81.3,126.6171
81.35,127.2436
81.4,127.9901
81.45,129.043
81.5,129.0405
81.55,128.7826
81.6,129.0436
81.65,129.9105
81.7,131.0887
81.75,132.566
81.8,133.778
81.85,134.4642
81.9,134.5421
81.95,134.4264
82,134.2154
82.05,133.7999
82.1,133.6456
82.15,133.7
82.2,134.0701
82.25,135.2691
82.3,137.0293
82.35,138.7019
82.4,139.8512
82.45,140.5506
82.5,141.2334
82.55,141.6007
82.6,141.7265
82.65,142.3482
82.7,142.6669
82.75,142.3342
82.8,142.0003
82.85,141.9032
82.9,142.1826
82.95,143.009
83,144.0263
83.05,145.6123
83.1,147.0794
83.15,147.8609
83.2,148.1513
83.25,147.8688
83.3,148.2814
83.35,149.1439
83.4,150.4966
83.45,152.4044
83.5,153.4553
83.55,152.7524
83.6,151.4687
83.65,150.9095
83.7,151.4673
83.75,151.4315
83.8,152.1209
83.85,153.5961
83.9,154.678
83.95,155.8973
84,156.1907
84.05,157.5953
84.1,158.8564
84.15,159.3199
84.2,160.0931
84.25,160.1316
84.3,160.3081
84.35,159.6341
84.4,159.4498
84.45,161.3822
84.5,163.3119
84.55,164.967
84.6,165.6402
84.65,164.9247
84.7,164.1647
84.75,163.3964
84.8,163.496
84.85,165.0162
84.9,165.8537
84.95,166.588
85,166.9162
85.05,167.2239
85.1,168.2676
85.15,169.0756
85.2,170.515
85.25,172.1711
85.3,173.5758
85.35,174.5565
85.4,175.0645
85.45,174.5454
85.5,173.4274
85.55,172.9342
85.6,173.8599
85.65,174.7105
85.7,175.9692
85.75,176.5008
85.8,176.3705
85.85,176.3689
85.9,177.5157
85.95,179.0237
86,179.6717
86.05,178.9574
86.1,178.4322
86.15,179.1923
86.2,181.4596
86.25,184.5114
86.3,186.6619
86.35,187.1534
86.4,186.8792
86.45,186.781
86.5,186.8631
86.55,187.2464
86.6,187.3301
86.65,187.3199
86.7,187.0054
86.75,186.7302
86.8,187.9542
86.85,190.037
86.9,192.4281
86.95,194.5792
87,195.4354
87.05,195.2133
87.1,194.8896
87.15,194.1147
87.2,194.1028
87.25,195.2168
87.3,197.296
87.35,199.3644
87.4,200.1137
87.45,200.346
87.5,200.0325
87.55,200.2926
87.6,200.9712
87.65,202.9569
87.7,205.2344
87.75,207.1463
87.8,207.9313
87.85,208.3336
87.9,207.1886
87.95,206.9324
88,206.855
88.05,207.7039
88.1,209.2482
88.15,210.6096
88.2,211.4081
88.25,212.5213
88.3,212.5783
88.35,213.0167
88.4,213.9764
88.45,213.6877
88.5,212.9996
88.55,212.1774
88.6,212.4919
88.65,214.3744
88.7,215.7966
88.75,218.0625
88.8,221.6833
88.85,223.4199
88.9,224.342
88.95,224.4994
89,224.4939
89.05,224.599
89.1,225.268
89.15,226.3068
89.2,226.4876
89.25,226.3481
89.3,226.6779
89.35,227.3977
89.4,228.0992
89.45,228.4803
89.5,228.3049
89.55,228.1847
89.6,228.4511
89.65,229.826
89.7,231.2103
89.75,231.8727
89.8,232.3418
89.85,233.112
89.9,235.176
89.95,237.1337
90,238.0613
90.05,238.3205
90.1,239.0448
90.15,240.3686
90.2,241.5609
90.25,242.2423
90.3,242.8079
90.35,243.9402
90.4,244.6321
90.45,244.9482
90.5,246.2212
90.55,247.4262
90.6,247.65
90.65,247.374
90.7,247.6093
90.75,248.9466
90.8,250.1242
90.85,251.1532
90.9,252.0197
90.95,251.7196
91,251.4537
91.05,251.1421
91.1,251.3367
91.15,252.298
91.2,253.6056
91.25,254.1065
91.3,252.9723
91.35,252.3176
91.4,250.9431
91.45,250.2612
91.5,251.0491
91.55,253.2094
91.6,256.0393
91.65,257.4433
91.7,259.493
91.75,260.9765
91.8,259.5941
91.85,259.6909
91.9,259.8245
91.95,260.1033
92,260.649
92.05,261.1622
92.1,263.3277
92.15,263.0226
92.2,261.5753
92.25,262.654
92.3,263.9324
92.35,264.1364
92.4,264.1902
92.45,264.6638
92.5,262.8079
92.55,260.422
92.6,260.3935
92.65,262.3488
92.7,263.7323
92.75,265.313
92.8,267.4232
92.85,267.3208
92.9,266.9937
92.95,266.1153
93,265.3933
93.05,265.1018
93.1,265.0376
93.15,265.3539
93.2,264.2209
93.25,262.6863
93.3,263.035
93.35,264.3229
93.4,265.5504
93.45,267.2988
93.5,268.3687
93.55,267.9838
93.6,267.0541
93.65,265.9877
93.7,264.7267
93.75,263.3405
93.8,260.8404
93.85,260.3604
93.9,260.1864
93.95,260.2694
94,259.34
94.05,257.1042
94.1,255.2677
94.15,253.9171
94.2,252.5925
94.25,252.3817
94.3,252.1414
94.35,251.9187
94.4,251.9301
94.45,251.7329
94.5,251.4996
94.55,250.245
94.6,248.68
94.65,247.2598
94.7,245.0813
94.75,242.712
94.8,240.8031
94.85,239.1894
94.9,237.8828
94.95,237.4956
95,237.1277
95.05,235.8038
95.1,233.4518
95.15,231.381
95.2,228.5317
95.25,226.0069
95.3,223.7477
95.35,221.6669
95.4,219.3332
95.45,216.5348
95.5,213.6577
95.55,210.1756
95.6,206.2614
95.65,203.9357
95.7,202.3857
95.75,200.596
95.8,199.7693
95.85,197.9785
95.9,196.3518
95.95,193.332
96,189.0321
96.05,185.304
96.1,181.9176
96.15,177.644
96.2,175.5047
96.25,173.1872
96.3,171.0846
96.35,166.7977
96.4,161.9212
96.45,159.2649
96.5,157.902
96.55,155.3617
96.6,152.6491
96.65,149.9634
96.7,146.6604
96.75,141.9428
96.8,138.8879
96.85,137.0677
96.9,133.8966
96.95,130.1434
97,126.1054
97.05,123.356
97.1,118.9655
97.15,115.4784
97.2,112.451
97.25,110.0263
97.3,107.1936
97.35,104.4651
97.4,101.5764
97.45,98.57638
97.5,95.56133
97.55,92.88422
97.6,88.51319
97.65,83.83978
97.7,80.2401
97.75,78.5655
97.8,77.21796
97.85,75.50159
97.9,74.12918
97.95,71.67863
98,68.39806
98.05,65.72432
98.1,63.98879
98.15,61.72463
98.2,58.40392
98.25,55.62136
98.3,54.12245
98.35,52.04391
98.4,49.82792
98.45,48.19907
98.5,46.36654
98.55,44.21878
98.6,42.40777
98.65,41.24773
98.7,40.41598
98.75,39.05112
98.8,37.4824
98.85,36.19434
98.9,34.48225
98.95,33.15391
99,32.20705
99.05,31.04294
99.1,29.54447
99.15,27.8375
99.2,26.36066
99.25,25.23638
99.3,24.59714
99.35,23.65158
99.4,22.55803
99.45,21.63272
99.5,20.7836
99.55,19.79344
99.6,18.95662
99.65,18.04588
99.7,17.5108
99.75,16.67006
99.8,16.2278
99.85,15.85068
99.9,14.98039
99.95,13.86985
100,13.23903
100.05,13.09184
100.1,12.89508
100.15,12.81177
100.2,12.62753
100.25,12.01219
100.3,11.19316
100.35,10.62076
100.4,10.35909
100.45,9.754025
100.5,9.396623
100.55,9.544596
100.6,9.233683
100.65,8.491822
100.7,7.880455
100.75,7.650504
100.8,7.072339
100.85,6.453445
100.9,6.31587
100.95,6.390662
101,6.123637
101.05,5.97367
101.1,5.941042
101.15,5.938983
101.2,5.642251
101.25,5.315665
101.3,5.103791
101.35,5.125851
101.4,4.887349
101.45,4.968199
101.5,5.356057
101.55,5.732038
101.6,5.768276
101.65,5.220485
101.7,4.68727
101.75,4.302814
101.8,4.192445
101.85,4.285984
101.9,4.298059
101.95,4.265243
102,4.113879
102.05,3.881225
102.1,3.87597
102.15,3.856061
102.2,3.800902
102.25,3.424558
102.3,2.988805
102.35,2.609957
102.4,2.407792
102.45,2.28137
102.5,2.288572
102.55,2.45714
102.6,2.725177
102.65,2.816745
102.7,2.748047
102.75,2.669268
102.8,2.574579
102.85,2.505445
102.9,2.579995
102.95,2.773352
103,2.809701
103.05,2.761843
103.1,2.622128
103.15,2.387084
103.2,2.034274
103.25,1.77951
103.3,1.675825
103.35,1.71265
103.4,1.866426
103.45,2.0582
103.5,2.043709
103.55,1.930038
103.6,1.849944
103.65,1.906688
103.7,1.832236
103.75,1.676793
103.8,1.587915
103.85,1.685847
103.9,1.729232
103.95,1.780377
104,1.851173
104.05,1.763508
104.1,1.372867
104.15,1.004789
104.2,0.9867657
104.25,1.28312
104.3,1.55424
104.35,1.729494
104.4,1.893253
104.45,1.708219
104.5,1.347416
104.55,1.154311
104.6,1.091102
104.65,1.199113
104.7,1.460492
104.75,1.73688
104.8,2.133362
104.85,2.323473
104.9,2.141053
104.95,1.798337
105,1.358976
105.05,1.343568
105.1,1.456293
105.15,1.729024
105.2,1.7981
105.25,1.478841
105.3,0.9759504
105.35,0.7148064
105.4,0.6281303
105.45,0.7230312
105.5,0.8083307
105.55,0.9915474
105.6,1.134437
105.65,1.286893
105.7,1.505912
105.75,1.742129
105.8,1.668863
105.85,1.396566
105.9,1.275429
105.95,1.306608
106,1.286023
106.05,1.208722
106.1,1.177182
106.15,1.164353
106.2,1.049811
106.25,1.014809
106.3,1.160466
106.35,1.218598
106.4,1.204198
106.45,1.17055
106.5,1.144705
106.55,1.073457
106.6,0.9673466
106.65,1.000064
106.7,1.154824
106.75,1.292614
106.8,1.402597
106.85,1.364171
106.9,1.142397
106.95,0.9220235
107,0.7863901
107.05,0.9060994
107.1,1.185926
107.15,1.26289
107.2,1.186501
107.25,1.025498
107.3,0.8038802
107.35,0.5808203
107.4,0.4003235
107.45,0.3357873
107.5,0.342715
107.55,0.248422
107.6,0.2380957
107.65,0.3954442
107.7,0.5596735
107.75,0.5876445
107.8,0.5940655
107.85,0.6059458
107.9,0.4972861
107.95,0.337874
108,0.4817748
108.05,0.7160422
108.1,0.9278383
108.15,1.213368
108.2,1.322474
108.25,1.120532
108.3,0.9236037
108.35,0.7781193
108.4,0.8083372
108.45,0.6844403
108.5,0.5616161
108.55,0.5760224
108.6,0.6286994
108.65,0.6002947
108.7,0.7117018
108.75,0.726834
108.8,0.631952
108.85,0.4044223
108.9,0.2471471
108.95,0.2897436
109,0.2820031
109.05,0.1761128
109.1,0.4414829
109.15,0.6018152
109.2,0.7775434
109.25,0.9019156
109.3,0.9022081
109.35,0.7945512
109.4,0.653177
109.45,0.9406871
109.5,1.07147
109.55,1.007184
109.6,1.134661
109.65,1.095207
109.7,0.9502321
109.75,0.6838638
109.8,0.5858888
109.85,0.6443582
109.9,0.5093935
109.95,0.471068
110,0.9482189
110.05,1.270105
110.1,1.291693
110.15,1.00299
110.2,0.7261162
110.25,0.3847589
110.3,0.1453495
110.35,0.3151633
110.4,0.9066362
110.45,1.081114
110.5,0.810545
110.55,0.4580801
110.6,0.2779244
110.65,0.4505605
110.7,0.8651611
110.75,1.212134
110.8,1.174376
110.85,0.7397179
110.9,0.2406227
110.95,-8.911137E-02
111,-0.209649
111.05,-0.1058396
111.1,-2.232923E-02
111.15,-5.686408E-02
111.2,1.446651E-02
111.25,0.2388761
111.3,0.4961201
111.35,0.5589851
111.4,0.4322619
111.45,0.2680607
111.5,0.1191229
111.55,-7.06217E-03
111.6,0.1590268
111.65,0.4310088
111.7,0.5764547
111.75,0.4286535
111.8,0.1469347
111.85,2.236613E-02
111.9,9.981051E-02
111.95,5.071719E-02
112,0.8198689
112.05,2.379729
112.1,3.537414
112.15,4.469285
112.2,6.190784
112.25,11.13377
112.3,15.83487
112.35,22.11405
112.4,30.71545
112.45,40.14354
112.5,50.30999
112.55,61.54903
112.6,73.66686
112.65,87.78015
112.7,97.75122
112.75,109.1823
112.8,120.2597
112.85,132.2057
112.9,143.0577
112.95,147.768
113,149.2946
113.05,143.4443
113.1,131.4923
113.15,120.2215
113.2,110.9793
113.25,103.7244
113.3,95.10966
113.35,85.39295
113.4,76.24589
113.45,65.3644
113.5,56.10252
113.55,48.41669
113.6,41.78384
113.65,36.35536
113.7,31.07159
113.75,26.78387
113.8,24.18612
113.85,21.53391
113.9,19.25089
113.95,17.47546
114,16.40257
114.05,15.6892
114.1,13.7487
114.15,12.68201
114.2,12.46419
114.25,11.60981
114.3,11.61083
114.35,12.45463
114.4,13.01186
114.45,12.35394
114.5,10.73685
114.55,9.576265
114.6,8.547197
114.65,7.635085
114.7,6.853202
114.75,6.451867
114.8,6.157685
114.85,5.969926
114.9,6.186309
114.95,6.717246
115,7.10518
115.05,6.793659
115.1,5.682508
115.15,4.848672
115.2,4.504616
115.25,4.265952
115.3,4.348951
115.35,4.153435
115.4,3.682945
115.45,3.376474
115.5,3.515322
115.55,3.98856
115.6,4.270252
115.65,3.941137
115.7,3.317239
115.75,2.385226
115.8,1.646763
115.85,1.719512
115.9,2.453152
115.95,2.905958
116,3.096281
116.05,3.178884
116.1,3.148885
116.15,2.872489
116.2,2.54462
116.25,2.484332
116.3,2.256958
116.35,1.8758
116.4,2.024383
116.45,1.90247
116.5,1.742259
116.55,1.471311
116.6,1.430642
116.65,1.703352
116.7,1.711655
116.75,1.815483
116.8,1.788525
116.85,1.383446
116.9,1.195288
116.95,1.170849
117,1.359895
117.05,1.181499
117.1,0.8719467
117.15,0.7394394
117.2,0.541548
117.25,0.3361488
117.3,0.1227002
117.35,0.3526959
117.4,0.5587023
117.45,0.2651896
117.5,2.790445E-02
117.55,-0.1441732
117.6,-0.4891574
117.65,-0.4766675
117.7,-0.3008269
117.75,9.523869E-02
117.8,3.487585E-02
117.85,-0.1447117
117.9,-0.1380333
117.95,-7.725575E-02
118,-7.043733E-02
118.05,9.662006E-03
118.1,-8.842136E-02
118.15,-0.2741242
118.2,-0.4041839
118.25,-0.422942
118.3,-0.4288678
118.35,-0.4745113
118.4,-0.5861764
118.45,-0.5398093
118.5,-0.467047
118.55,-0.4454176
118.6,-0.2760807
118.65,-0.2010716
118.7,-0.2996949
118.75,-0.4354844
118.8,-0.3055683
118.85,3.905128E-02
118.9,0.1297293
118.95,5.954403E-02
119,2.900746E-02
119.05,-0.2228128
119.1,-0.5922388
119.15,-0.6626295
119.2,-0.4105727
119.25,-0.2286171
119.3,-0.2536865
119.35,-0.3975804
119.4,-0.7031392
119.45,-1.076956
119.5,-1.311198
119.55,-1.237836
119.6,-1.011617
119.65,-0.8044785
119.7,-0.5776265
119.75,-0.4387
119.8,-0.4410616
119.85,-0.5328882
119.9,-0.8273345
119.95,-1.032091
120,-1.024753
120.05,-1.045844
120.1,-1.075679
120.15,-0.9527206
120.2,-0.8025262
120.25,-0.7947692
120.3,-0.8850452
120.35,-0.8536165
120.4,-0.8217328
120.45,-1.076301
120.5,-1.329143
120.55,-1.081004
120.6,-0.8617012
120.65,-0.7786222
120.7,-0.5208713
120.75,-0.477454
120.8,-0.6632155
120.85,-1.131355
120.9,-1.501666
120.95,-1.538999
121,-1.611287
121.05,-1.353038
121.1,-1.025021
121.15,-0.9162654
121.2,-0.8768201
121.25,-0.9702845
121.3,-0.9572744
121.35,-0.9121615
121.4,-0.9013221
121.45,-0.9137968
121.5,-1.128055
121.55,-1.087108
121.6,-0.9976339
121.65,-0.9178866
121.7,-0.9136723
121.75,-0.8086223
121.8,-0.8333859
121.85,-0.9628572
121.9,-1.198753
121.95,-1.378327
122,-1.697142
122.05,-1.98374
122.1,-2.136634
122.15,-2.040217
122.2,-1.976129
122.25,-1.668633
122.3,-1.146236
122.35,-0.7758642
122.4,-0.7277026
122.45,-0.8997687
122.5,-1.168248
122.55,-1.417821
122.6,-1.515933
122.65,-1.063167
122.7,-0.5447015
122.75,-0.4892483
122.8,-0.666334
122.85,-0.9346022
122.9,-1.305002
122.95,-1.533762
123,-1.575832
123.05,-1.468209
123.1,-1.451682
123.15,-1.375645
123.2,-1.064825
123.25,-0.8808318
123.3,-0.8721734
123.35,-0.90271
123.4,-1.061925
123.45,-1.256943
123.5,-1.33273
123.55,-1.240952
123.6,-1.045675
123.65,-1.035336
123.7,-1.1889
123.75,-1.308077
123.8,-1.415676
123.85,-1.482708
123.9,-1.562432
123.95,-1.514025
124,-1.376977
124.05,-1.353155
124.1,-1.272202
124.15,-0.9568631
124.2,-0.8350592
124.25,-0.9793017
124.3,-1.207543
124.35,-1.455734
124.4,-1.480473
124.45,-1.472291
124.5,-1.323973
124.55,-1.147135
124.6,-1.072346
124.65,-1.103396
124.7,-1.038308
124.75,-1.009495
124.8,-0.8921291
124.85,-0.8599675
124.9,-0.8182082
124.95,-0.9217955
125,-1.023537
125.05,-1.229271
125.1,-1.34944
125.15,-1.526783
125.2,-1.545558
125.25,-1.237637
125.3,-0.927627
125.35,-0.8771098
125.4,-1.008833
125.45,-1.182396
125.5,-1.125742
125.55,-1.056203
125.6,-0.9255478
125.65,-0.8209381
125.7,-0.9314052
125.75,-1.244645
125.8,-1.491161
125.85,-1.579615
125.9,-1.482202
125.95,-1.541538
126,-1.44368
126.05,-1.086695
126.1,-0.6798304
126.15,-0.5813091
126.2,-0.6951618
126.25,-1.080117
126.3,-1.513861
126.35,-1.749308
126.4,-1.654095
126.45,-1.423159
126.5,-1.16735
126.55,-1.107122
126.6,-1.178243
126.65,-1.303734
126.7,-1.356979
126.75,-1.440294
126.8,-1.595353
126.85,-1.715411
126.9,-1.79597
126.95,-1.911885
127,-1.826333
127.05,-1.501186
127.1,-1.141038
127.15,-1.02479
127.2,-1.117797
127.25,-1.291856
127.3,-1.534416
127.35,-1.610824
127.4,-1.236455
127.45,-0.7436131
127.5,-0.5834078
127.55,-0.8115199
127.6,-1.23044
127.65,-1.623968
127.7,-1.917769
127.75,-1.93102
127.8,-1.580907
127.85,-1.100831
127.9,-0.8765646
127.95,-0.907069
128,-1.143353
128.05,-1.431913
128.1,-1.690006
128.15,-1.717549
128.2,-1.482619
128.25,-1.231483
128.3,-1.186242
128.35,-1.230715
128.4,-1.374283
128.45,-1.586984
128.5,-1.808093
128.55,-1.850288
128.6,-1.839893
128.65,-1.815642
128.7,-1.707328
128.75,-1.665261
128.8,-1.59096
128.85,-1.518423
128.9,-1.462028
128.95,-1.3399
129,-1.356734
129.05,-1.399652
129.1,-1.438893
129.15,-1.419829
129.2,-1.340945
129.25,-1.42659
129.3,-1.62576
129.35,-1.755371
129.4,-1.92203
129.45,-1.951475
129.5,-1.944857
129.55,-1.762917
129.6,-1.583895
129.65,-1.444892
129.7,-1.33849
129.75,-1.207155
129.8,-1.309813
129.85,-1.515938
129.9,-1.723559
129.95,-1.763579
130,-1.783658
130.05,-1.571232
130.1,-1.276263
130.15,-1.128313
130.2,-1.246073
130.25,-1.371277
130.3,-1.440306
130.35,-1.490205
130.4,-1.561293
130.45,-1.518968
130.5,-1.520819
130.55,-1.492713
130.6,-1.517465
130.65,-1.518601
130.7,-1.420633
130.75,-1.35759
130.8,-1.44269
130.85,-1.562001
130.9,-1.645527
130.95,-1.715292
131,-1.790148
131.05,-1.721192
131.1,-1.623334
131.15,-1.680692
131.2,-1.791991
131.25,-1.788751
131.3,-1.774779
131.35,-1.783296
131.4,-1.713855
131.45,-1.613204
131.5,-1.559655
131.55,-1.545385
131.6,-1.561476
131.65,-1.574179
131.7,-1.608235
131.75,-1.701294
131.8,-1.727286
131.85,-1.658295
131.9,-1.589985
131.95,-1.633614
132,-1.844391
132.05,-2.031266
132.1,-2.125402
132.15,-2.094873
132.2,-1.825684
132.25,-1.475124
132.3,-1.262664
132.35,-1.270738
132.4,-1.360831
132.45,-1.483156
132.5,-1.607477
132.55,-1.618252
132.6,-1.598532
132.65,-1.629598
132.7,-1.562525
132.75,-1.528437
132.8,-1.32938
132.85,-1.425632
132.9,-1.666921
132.95,-1.956136
133,-2.281151
133.05,-2.47457
133.1,-2.446157
133.15,-2.128339
133.2,-1.825657
133.25,-1.767771
133.3,-1.78741
133.35,-1.857303
133.4,-1.905276
133.45,-1.8206
133.5,-1.78366
133.55,-1.709784
133.6,-1.720065
133.65,-1.764533
133.7,-1.519473
133.75,-1.244767
133.8,-1.049202
133.85,-1.179479
133.9,-1.550044
133.95,-1.926335
134,-2.141887
134.05,-2.019051
134.1,-1.725073
134.15,-1.490441
134.2,-1.433731
134.25,-1.521478
134.3,-1.548316
134.35,-1.685268
134.4,-1.868373
134.45,-1.820263
134.5,-1.765
134.55,-1.585626
134.6,-1.459715
134.65,-1.516344
134.7,-1.596643
134.75,-1.672543
134.8,-1.709198
134.85,-1.681835
134.9,-1.66712
134.95,-1.616394
135,-1.654122
135.05,-1.787099
135.1,-1.656792
135.15,-1.44524
135.2,-1.273921
135.25,-0.9814842
135.3,-0.7674485
135.35,-0.8867602
135.4,-1.304989
135.45,-1.790749
135.5,-2.078673
135.55,-2.236529
135.6,-2.236159
135.65,-2.068905
135.7,-1.976856
135.75,-1.965999
135.8,-1.925397
135.85,-1.952645
135.9,-2.056166
135.95,-2.115749
136,-2.100482
136.05,-2.000138
136.1,-1.937049
136.15,-1.806977
136.2,-1.636397
136.25,-1.658975
136.3,-1.799586
136.35,-1.918986
136.4,-2.013432
136.45,-2.013924
136.5,-1.992178
136.55,-1.87814
136.6,-1.749045
136.65,-1.619486
136.7,-1.57973
136.75,-1.51593
136.8,-1.510256
136.85,-1.685128
136.9,-1.932977
136.95,-2.177428
137,-2.305661
137.05,-2.250036
137.1,-2.355588
137.15,-2.334575
137.2,-2.202254
137.25,-2.025322
137.3,-1.809988
137.35,-1.762637
137.4,-1.767635
137.45,-1.865238
137.5,-2.196612
137.55,-2.23142
137.6,-2.014498
137.65,-1.580476
137.7,-1.328592
137.75,-1.236289
137.8,-1.278512
137.85,-1.386298
137.9,-1.711745
137.95,-1.881145
138,-1.784305
 
Alignment,On
