Data File Name,2100 expert_High Sensitivity DNA Assay_DE54700632_2020-03-13_17-24-22_exports.xad
Data File Path,E:\201905_exports
Date Created,"Saturday, March 14, 2020 12:24:22 AM"
Date Last Modified,"Tuesday, November 03, 2020 12:48:31 AM"
Version Created,B.02.08.SI648
Version Last Modified,B.02.08.SI648
 
Assay Name,High Sensitivity DNA
Assay Path,C:\Program Files\Agilent\2100 bioanalyzer\2100 expert\assays\dsDNA
Assay Title,High Sensitivity DNA Assay
Assay Version,1.03
 
Number of Samples Run,8
 
Sample Name,Ladder
Number of Events,2121
 
Time,Value
32,0.1526794
32.05,0.1526794
32.1,0.1526794
32.15,0.1526794
32.2,0.1526794
32.25,0.1526794
32.3,0.1526794
32.35,0.1526794
32.4,0.1526794
32.45,0.1526794
32.5,0.1526794
32.55,0.1526794
32.6,0.1526794
32.65,0.1526794
32.7,0.1526794
32.75,0.1526794
32.8,0.1526794
32.85,0.1526794
32.9,0.1526794
32.95,0.1526794
33,0.1526794
33.05,0.1526794
33.1,0.1526794
33.15,0.1526794
33.2,0.1526794
33.25,0.1526794
33.3,0.1526794
33.35,0.1772614
33.4,0.0533862
33.45,-0.257764
33.5,-0.2271874
33.55,-0.3071458
33.6,-0.2419043
33.65,-5.653706E-02
33.7,6.615102E-02
33.75,0.1117727
33.8,7.966567E-02
33.85,0.0664304
33.9,4.041187E-02
33.95,5.268744E-02
34,0.1609642
34.05,0.126162
34.1,7.540103E-02
34.15,4.432768E-02
34.2,5.826398E-02
34.25,0.1268158
34.3,0.2217032
34.35,0.3671147
34.4,0.4030661
34.45,0.3849476
34.5,0.4827566
34.55,0.3401965
34.6,0.3574443
34.65,0.2957642
34.7,0.2634799
34.75,0.1760803
34.8,0.1090154
34.85,0.1612355
34.9,5.048188E-02
34.95,-0.157594
35,-0.2362133
35.05,-0.2487736
35.1,-9.468992E-02
35.15,1.466861E-02
35.2,1.163779E-02
35.25,-0.0716757
35.3,-7.995662E-02
35.35,6.608734E-02
35.4,0.1320788
35.45,-0.0435782
35.5,-9.667384E-02
35.55,-0.1957593
35.6,-0.3662156
35.65,-0.4175833
35.7,-0.3092897
35.75,-0.3985364
35.8,-0.4926607
35.85,-0.3943669
35.9,-0.5314331
35.95,-0.4094501
36,-0.2315078
36.05,-0.2698923
36.1,-0.2117913
36.15,-0.1535975
36.2,1.332828E-02
36.25,-7.539366E-04
36.3,-0.1714285
36.35,-0.1471563
36.4,-9.546006E-02
36.45,0.2445368
36.5,0.3995721
36.55,0.4404159
36.6,0.2927454
36.65,0.2008439
36.7,0.3004216
36.75,0.221003
36.8,6.758328E-02
36.85,-7.46015E-03
36.9,-0.1073616
36.95,-0.1108422
37,-1.397279E-02
37.05,0.0494061
37.1,-6.089004E-02
37.15,-0.2817801
37.2,-0.2822811
37.25,-0.3950026
37.3,-0.2799618
37.35,-0.147929
37.4,-3.165419E-02
37.45,-0.1979668
37.5,-0.2677389
37.55,-0.2603
37.6,-0.2722075
37.65,-0.3623135
37.7,-0.1631509
37.75,-0.2297609
37.8,-0.2096117
37.85,-0.1400938
37.9,-0.1064699
37.95,4.126456E-02
38,2.599105E-02
38.05,-2.514296E-02
38.1,-0.2314791
38.15,-0.4511095
38.2,-0.4689503
38.25,-0.3647202
38.3,-0.3372612
38.35,-0.4743186
38.4,-0.4407493
38.45,-0.4241031
38.5,-0.56683
38.55,-0.4101494
38.6,-0.4313244
38.65,-0.4085447
38.7,-0.2757028
38.75,-0.1951527
38.8,-0.2246288
38.85,-0.345202
38.9,-0.396153
38.95,-0.4995375
39,-0.6267624
39.05,-0.5249248
39.1,-0.3681021
39.15,-0.2816966
39.2,-0.1715811
39.25,-0.1837543
39.3,-0.3284678
39.35,-0.3482482
39.4,-0.2407275
39.45,-0.1972613
39.5,-0.1646186
39.55,-0.1395872
39.6,-0.1958274
39.65,-0.2929552
39.7,-0.2854305
39.75,-0.3302296
39.8,-0.3310955
39.85,-0.4683909
39.9,-0.3663332
39.95,-0.3997751
40,-0.4456542
40.05,-0.4114993
40.1,-0.3454186
40.15,-0.3467916
40.2,-0.3425574
40.25,-0.2768023
40.3,-0.2816969
40.35,-0.3626683
40.4,-0.2746362
40.45,-0.1901512
40.5,-0.2407042
40.55,-0.2013361
40.6,-0.1759207
40.65,-0.3690993
40.7,-0.4433044
40.75,-0.2974461
40.8,-0.156197
40.85,-0.2330095
40.9,-0.1650129
40.95,-0.2916203
41,-0.5817826
41.05,-0.6379553
41.1,-0.6384093
41.15,-0.5184464
41.2,-0.4306696
41.25,-0.2764325
41.3,-0.3414645
41.35,-0.4092759
41.4,-0.3083892
41.45,-0.4896697
41.5,-0.6257431
41.55,-0.8054433
41.6,-0.7207721
41.65,-0.4924997
41.7,-0.2786745
41.75,-0.0637041
41.8,-0.199329
41.85,-0.3730372
41.9,-0.3727154
41.95,-0.3025911
42,-0.1845944
42.05,-0.1040872
42.1,-0.142935
42.15,-0.3439004
42.2,-0.4885693
42.25,-0.4171761
42.3,-0.444217
42.35,-0.5189048
42.4,-0.42208
42.45,-0.3976736
42.5,-0.3203824
42.55,-3.292439E-02
42.6,0.8859613
42.65,3.046264
42.7,7.95281
42.75,16.92569
42.8,31.09031
42.85,49.08917
42.9,68.68029
42.95,84.76343
43,92.46419
43.05,87.61049
43.1,73.18085
43.15,53.66243
43.2,34.31837
43.25,18.95241
43.3,9.033848
43.35,3.769311
43.4,1.422753
43.45,0.4795235
43.5,0.2123698
43.55,-2.599869E-02
43.6,1.637712E-02
43.65,-1.613067E-02
43.7,-4.809427E-02
43.75,-1.509115E-02
43.8,-3.670145E-02
43.85,-3.841459E-02
43.9,-0.1117248
43.95,-0.1077946
44,-0.1699688
44.05,-0.2991605
44.1,-0.2053829
44.15,-0.1762615
44.2,-0.117751
44.25,-9.336255E-02
44.3,-0.1887094
44.35,-0.2004493
44.4,-0.1202312
44.45,1.177151E-02
44.5,6.006778E-02
44.55,1.696183E-02
44.6,0.0461619
44.65,-2.902643E-02
44.7,-0.1751828
44.75,-0.3006817
44.8,-0.2870992
44.85,3.029183E-02
44.9,1.73171
44.95,6.057447
45,14.62255
45.05,28.99785
45.1,49.62541
45.15,73.51163
45.2,94.71635
45.25,106.6631
45.3,105.2508
45.35,90.60514
45.4,67.71752
45.45,43.6803
45.5,24.33836
45.55,11.70297
45.6,4.95737
45.65,2.039665
45.7,1.135312
45.75,0.8505479
45.8,0.6577711
45.85,0.5120997
45.9,0.276533
45.95,0.2141723
46,0.1638785
46.05,0.1020838
46.1,8.084082E-02
46.15,5.934129E-02
46.2,7.592264E-02
46.25,-1.334216E-02
46.3,3.567117E-02
46.35,1.697889E-02
46.4,-0.2356295
46.45,-0.275261
46.5,-0.3515487
46.55,-0.3559433
46.6,-0.3518533
46.65,-0.2359049
46.7,-0.103227
46.75,-0.1043854
46.8,0.1116206
46.85,0.0795608
46.9,-8.217429E-02
46.95,-7.566412E-02
47,-9.777468E-02
47.05,-1.872398E-02
47.1,2.957893E-02
47.15,5.464972E-02
47.2,5.294632E-02
47.25,4.128542E-02
47.3,9.847154E-02
47.35,4.530427E-02
47.4,-3.578519E-02
47.45,-1.940839E-02
47.5,-5.905453E-02
47.55,-0.0456043
47.6,-0.1282653
47.65,-9.592917E-02
47.7,-0.2123837
47.75,-0.279369
47.8,-0.2094143
47.85,-0.1642978
47.9,-3.089705E-02
47.95,5.250412E-02
48,0.1105134
48.05,0.139484
48.1,0.1096098
48.15,8.927973E-02
48.2,9.984221E-02
48.25,-4.521028E-02
48.3,-8.69081E-03
48.35,0.1503664
48.4,0.2306237
48.45,0.2669438
48.5,0.3029534
48.55,0.1770987
48.6,-9.951113E-02
48.65,-6.303233E-02
48.7,-6.534097E-02
48.75,1.449736E-02
48.8,0.1804944
48.85,0.2773359
48.9,0.1817613
48.95,0.1332696
49,9.464865E-02
49.05,2.879827E-02
49.1,-5.275929E-02
49.15,3.746598E-02
49.2,8.543646E-03
49.25,0.0465434
49.3,0.2430163
49.35,9.560639E-02
49.4,9.935197E-02
49.45,5.045971E-02
49.5,3.572863E-02
49.55,6.445979E-02
49.6,0.177544
49.65,0.2672075
49.7,0.2481622
49.75,0.2334324
49.8,0.2113851
49.85,0.1959819
49.9,0.1188884
49.95,-0.1106268
50,-0.1067114
50.05,-0.1244766
50.1,-0.1281519
50.15,9.763961E-02
50.2,7.313102E-02
50.25,-7.627114E-02
50.3,-1.029474E-02
50.35,-2.576573E-02
50.4,-9.161516E-02
50.45,6.565191E-02
50.5,0.5306937
50.55,1.943174
50.6,5.620955
50.65,13.97513
50.7,29.89189
50.75,54.34221
50.8,83.55096
50.85,110.8639
50.9,127.548
50.95,127.393
51,108.7585
51.05,80.16129
51.1,50.65917
51.15,27.45679
51.2,12.4877
51.25,5.664729
51.3,3.003642
51.35,2.092275
51.4,1.524468
51.45,1.014152
51.5,0.8266503
51.55,0.6867317
51.6,0.6711692
51.65,0.5427623
51.7,0.5031608
51.75,0.4853058
51.8,0.3563842
51.85,0.3307545
51.9,0.2073404
51.95,0.1132429
52,0.2884981
52.05,0.3555923
52.1,0.3602599
52.15,0.4025649
52.2,0.4467941
52.25,0.4283674
52.3,0.4587317
52.35,0.5453371
52.4,0.4000059
52.45,0.1205138
52.5,-2.965905E-02
52.55,-4.192763E-02
52.6,4.610151E-02
52.65,9.822645E-02
52.7,0.1268522
52.75,6.249503E-02
52.8,-0.1256526
52.85,-2.036504E-02
52.9,0.1494866
52.95,0.2417677
53,0.3127866
53.05,0.2179657
53.1,3.687873E-02
53.15,-0.0273504
53.2,0.1914648
53.25,0.23462
53.3,0.1506019
53.35,9.343427E-02
53.4,7.881225E-02
53.45,0.1621443
53.5,0.3348698
53.55,0.3384134
53.6,0.1906199
53.65,1.502224E-03
53.7,-0.015991
53.75,0.0754394
53.8,0.1550082
53.85,0.2684442
53.9,8.109962E-02
53.95,-0.1444675
54,-0.2795432
54.05,-0.2371861
54.1,-0.1732192
54.15,-0.2898127
54.2,-0.1476483
54.25,-0.171073
54.3,-0.2276339
54.35,-9.922835E-02
54.4,-7.024559E-02
54.45,-6.077963E-02
54.5,-0.1293373
54.55,-0.1193423
54.6,-0.1697799
54.65,-0.1819624
54.7,2.994249E-02
54.75,0.1096085
54.8,0.1450264
54.85,0.1176494
54.9,1.843267E-02
54.95,2.571325E-03
55,-9.855071E-02
55.05,-6.622723E-02
55.1,-0.2314572
55.15,-0.4042926
55.2,-0.1954745
55.25,-0.1568408
55.3,9.796227E-03
55.35,0.4793321
55.4,2.15158
55.45,7.399419
55.5,19.71393
55.55,41.28522
55.6,71.75039
55.65,106.723
55.7,137.737
55.75,154.8121
55.8,150.3579
55.85,127.908
55.9,94.84119
55.95,60.77391
56,33.14581
56.05,16.50293
56.1,7.680787
56.15,3.828176
56.2,2.36318
56.25,1.573345
56.3,1.284942
56.35,1.072762
56.4,1.037148
56.45,0.8432554
56.5,0.4244097
56.55,0.4152629
56.6,0.3147313
56.65,0.178021
56.7,0.1677831
56.75,9.701951E-02
56.8,-0.1167638
56.85,-0.1046172
56.9,3.244211E-02
56.95,0.0208167
57,6.781397E-02
57.05,0.1206257
57.1,-0.1045049
57.15,-0.1541504
57.2,-0.0522512
57.25,0.1505341
57.3,0.137584
57.35,-8.068898E-02
57.4,-0.3426566
57.45,-0.3605508
57.5,-0.3656014
57.55,-0.3141923
57.6,-0.250942
57.65,-0.414504
57.7,-0.573185
57.75,-0.4565049
57.8,-0.3896093
57.85,-0.5731704
57.9,-0.4161369
57.95,-0.5284774
58,-0.6041405
58.05,-0.4432221
58.1,-0.3391036
58.15,-0.3754167
58.2,-0.4504185
58.25,-0.4827298
58.3,-0.5278984
58.35,-0.573472
58.4,-0.3755567
58.45,-0.2978551
58.5,-0.2886613
58.55,-0.3125984
58.6,-0.4019192
58.65,-0.3748983
58.7,-0.4446941
58.75,-0.5084193
58.8,-0.5581526
58.85,-0.6744211
58.9,-0.612092
58.95,-0.6762988
59,-0.7457092
59.05,-0.8119218
59.1,-0.7332447
59.15,-0.5664197
59.2,-0.6746869
59.25,-0.6168643
59.3,-0.7762597
59.35,-0.999154
59.4,-1.030801
59.45,-0.8903387
59.5,-0.8650152
59.55,-0.7597147
59.6,-0.6967578
59.65,-0.7708187
59.7,-0.7047482
59.75,-0.4136874
59.8,-0.3970582
59.85,-0.5364471
59.9,-0.6603646
59.95,-0.9106004
60,-0.6609716
60.05,-0.147568
60.1,1.321425
60.15,4.784074
60.2,12.69685
60.25,28.33828
60.3,54.07135
60.35,87.45889
60.4,121.8303
60.45,151.03
60.5,166.8032
60.55,162.4166
60.6,140.9917
60.65,109.0486
60.7,73.89789
60.75,43.92932
60.8,23.65474
60.85,11.77227
60.9,5.966012
60.95,3.530312
61,2.59705
61.05,1.994833
61.1,1.56941
61.15,1.117878
61.2,0.7474643
61.25,0.5934296
61.3,0.4507012
61.35,0.2467393
61.4,-3.951491E-02
61.45,-0.1355969
61.5,-0.253424
61.55,-0.2335885
61.6,-0.24834
61.65,-0.3193371
61.7,-0.4389074
61.75,-0.510286
61.8,-0.654519
61.85,-0.6456276
61.9,-0.6364739
61.95,-0.5358336
62,-0.6186231
62.05,-0.8425213
62.1,-0.7803694
62.15,-0.7141944
62.2,-0.5903034
62.25,-0.4347968
62.3,-0.4543324
62.35,-0.7223028
62.4,-0.8193992
62.45,-0.8403184
62.5,-0.8868965
62.55,-0.9529681
62.6,-0.9256316
62.65,-1.040639
62.7,-1.227799
62.75,-1.305691
62.8,-1.29875
62.85,-1.196397
62.9,-1.085411
62.95,-0.9166662
63,-0.9179372
63.05,-0.9471052
63.1,-0.8956415
63.15,-0.946646
63.2,-0.9008092
63.25,-1.02501
63.3,-0.9968874
63.35,-1.028365
63.4,-1.151766
63.45,-0.9880729
63.5,-0.9640762
63.55,-0.9667776
63.6,-0.9286091
63.65,-1.020078
63.7,-1.136093
63.75,-1.179745
63.8,-1.125058
63.85,-1.108843
63.9,-1.051189
63.95,-0.9545401
64,-1.115474
64.05,-1.212207
64.1,-1.245627
64.15,-1.289733
64.2,-1.186792
64.25,-1.304
64.3,-1.254615
64.35,-1.261259
64.4,-1.325705
64.45,-1.245296
64.5,-1.302287
64.55,-1.302009
64.6,-1.248779
64.65,-1.1705
64.7,-1.122745
64.75,-1.0905
64.8,-0.9853258
64.85,-0.9949186
64.9,-1.124025
64.95,-1.181508
65,-1.246316
65.05,-1.200243
65.1,-1.228567
65.15,-1.115515
65.2,-1.151425
65.25,-1.33968
65.3,-1.253788
65.35,-1.417428
65.4,-1.573275
65.45,-1.58058
65.5,-1.480776
65.55,-1.314307
65.6,-1.20555
65.65,-1.122388
65.7,-1.191613
65.75,-1.4142
65.8,-1.468056
65.85,-1.002378
65.9,-0.6926832
65.95,0.8583194
66,2.811508
66.05,3.334097
66.1,2.491477
66.15,1.009009
66.2,-0.6695151
66.25,-1.527936
66.3,-1.366231
66.35,-1.326553
66.4,-1.362014
66.45,-1.264668
66.5,-1.298504
66.55,-1.548424
66.6,-1.867372
66.65,-1.803573
66.7,-1.724364
66.75,-1.633532
66.8,-1.492668
66.85,-1.641711
66.9,-1.736996
66.95,-1.648827
67,-1.323866
67.05,-1.177893
67.1,-1.333855
67.15,-1.483922
67.2,-1.602739
67.25,-1.442852
67.3,-1.269356
67.35,-1.185867
67.4,-1.341286
67.45,-1.413156
67.5,-1.36888
67.55,-1.399327
67.6,-1.527889
67.65,-1.47086
67.7,-1.442121
67.75,-1.439649
67.8,-1.51213
67.85,-1.644509
67.9,-1.713232
67.95,-1.860081
68,-1.692076
68.05,-1.575221
68.1,-1.530977
68.15,-1.379849
68.2,-1.450489
68.25,-1.466606
68.3,-1.556354
68.35,-1.513017
68.4,-1.514561
68.45,-1.634236
68.5,-1.585868
68.55,-1.48222
68.6,-1.497375
68.65,-1.488516
68.7,-1.43672
68.75,-1.442985
68.8,-1.52756
68.85,-1.466343
68.9,-1.520607
68.95,-1.553813
69,-1.488248
69.05,-1.46257
69.1,-1.507569
69.15,-1.549229
69.2,-1.602176
69.25,-1.498337
69.3,-1.101345
69.35,0.3005046
69.4,3.510362
69.45,10.19669
69.5,21.79057
69.55,40.65874
69.6,67.52594
69.65,99.08223
69.7,131.7572
69.75,161.5205
69.8,180.9535
69.85,184.3567
69.9,174.0217
69.95,151.4636
70,121.0802
70.05,89.87894
70.1,61.33536
70.15,38.30643
70.2,22.52445
70.25,13.22216
70.3,7.820532
70.35,5.571192
70.4,3.689146
70.45,2.091642
70.5,1.139409
70.55,0.6894534
70.6,0.5849538
70.65,0.435411
70.7,0.2901168
70.75,-0.0493617
70.8,-0.4026794
70.85,-0.5872095
70.9,-0.8413766
70.95,-0.7829502
71,-0.6672843
71.05,-0.7659249
71.1,-1.021489
71.15,-1.251764
71.2,-1.179194
71.25,-1.017442
71.3,-0.9192058
71.35,-0.887623
71.4,-1.245881
71.45,-1.35531
71.5,-1.394793
71.55,-1.354736
71.6,-1.234509
71.65,-1.300396
71.7,-1.33434
71.75,-1.402121
71.8,-1.526435
71.85,-1.569302
71.9,-1.546393
71.95,-1.63471
72,-1.761578
72.05,-1.683124
72.1,-1.743558
72.15,-1.934351
72.2,-1.788442
72.25,-1.816338
72.3,-1.75949
72.35,-1.509026
72.4,-1.445916
72.45,-1.652882
72.5,-1.676555
72.55,-1.635022
72.6,-1.673146
72.65,-1.71192
72.7,-1.672796
72.75,-1.873315
72.8,-1.847688
72.85,-1.726884
72.9,-1.687287
72.95,-1.805441
73,-1.94745
73.05,-1.914884
73.1,-1.872724
73.15,-1.917798
73.2,-1.927026
73.25,-2.084092
73.3,-2.208528
73.35,-2.200913
73.4,-2.130389
73.45,-1.981796
73.5,-1.939639
73.55,-1.752423
73.6,-1.8159
73.65,-1.859837
73.7,-1.832377
73.75,-1.797819
73.8,-1.834334
73.85,-1.842263
73.9,-1.808495
73.95,-1.742207
74,-1.626402
74.05,-1.635438
74.1,-1.859774
74.15,-2.072087
74.2,-2.142369
74.25,-2.092157
74.3,-2.056503
74.35,-2.186279
74.4,-2.188221
74.45,-2.205341
74.5,-2.284602
74.55,-1.974279
74.6,-2.008242
74.65,-2.026852
74.7,-2.053172
74.75,-2.000855
74.8,-1.91901
74.85,-1.732289
74.9,-1.564112
74.95,-1.650469
75,-1.793291
75.05,-1.773937
75.1,-1.888315
75.15,-1.97061
75.2,-2.043095
75.25,-1.967592
75.3,-1.853897
75.35,-2.055999
75.4,-1.968966
75.45,-2.086371
75.5,-2.273709
75.55,-2.264416
75.6,-2.246537
75.65,-2.209137
75.7,-2.149873
75.75,-2.020564
75.8,-2.059
75.85,-2.136789
75.9,-2.06605
75.95,-2.111337
76,-2.151386
76.05,-2.198271
76.1,-2.064296
76.15,-1.981995
76.2,-2.020995
76.25,-1.988094
76.3,-1.948121
76.35,-1.910896
76.4,-1.857393
76.45,-1.853966
76.5,-1.962539
76.55,-1.958871
76.6,-1.899562
76.65,-1.86526
76.7,-1.993595
76.75,-1.992404
76.8,-1.997887
76.85,-2.133181
76.9,-2.096948
76.95,-2.096655
77,-2.106248
77.05,-1.795249
77.1,-0.9713199
77.15,0.6909726
77.2,3.527078
77.25,9.194191
77.3,18.43854
77.35,32.89421
77.4,52.90825
77.45,77.6608
77.5,105.9647
77.55,134.0039
77.6,159.7585
77.65,179.839
77.7,190.7491
77.75,190.5485
77.8,178.108
77.85,157.6431
77.9,131.6562
77.95,103.5144
78,75.85805
78.05,53.42207
78.1,35.83244
78.15,23.40642
78.2,14.99087
78.25,9.39129
78.3,5.704832
78.35,3.610365
78.4,2.149038
78.45,1.251849
78.5,0.8134704
78.55,0.4287908
78.6,0.1187435
78.65,-0.4281504
78.7,-1.043198
78.75,-1.31168
78.8,-1.189494
78.85,-1.072812
78.9,-0.986356
78.95,-1.036584
79,-1.304814
79.05,-1.746809
79.1,-1.860904
79.15,-1.960395
79.2,-1.991626
79.25,-1.879064
79.3,-1.787248
79.35,-1.879104
79.4,-1.997074
79.45,-1.959044
79.5,-1.948563
79.55,-2.069763
79.6,-2.012264
79.65,-1.974336
79.7,-2.097505
79.75,-2.088543
79.8,-2.05293
79.85,-2.053932
79.9,-2.080427
79.95,-1.99531
80,-2.078744
80.05,-2.326882
80.1,-2.378065
80.15,-2.38704
80.2,-2.330917
80.25,-2.235751
80.3,-2.179174
80.35,-2.249404
80.4,-2.235813
80.45,-2.123091
80.5,-2.176821
80.55,-2.37792
80.6,-2.460191
80.65,-2.559294
80.7,-2.463963
80.75,-2.407127
80.8,-2.271219
80.85,-2.326124
80.9,-2.581456
80.95,-2.420435
81,-2.45951
81.05,-2.529664
81.1,-2.446817
81.15,-2.504683
81.2,-2.581158
81.25,-2.515242
81.3,-2.381575
81.35,-2.31712
81.4,-2.261934
81.45,-2.214145
81.5,-2.399298
81.55,-2.409357
81.6,-2.345315
81.65,-2.280888
81.7,-2.230193
81.75,-2.391457
81.8,-2.366687
81.85,-2.435874
81.9,-2.56741
81.95,-2.518162
82,-2.528765
82.05,-2.55387
82.1,-2.468134
82.15,-2.431575
82.2,-2.585581
82.25,-2.675254
82.3,-2.637276
82.35,-2.713979
82.4,-2.598712
82.45,-2.318743
82.5,-2.242364
82.55,-1.862852
82.6,-1.270405
82.65,-0.1235838
82.7,1.954063
82.75,5.949861
82.8,12.81906
82.85,23.0266
82.9,36.63958
82.95,54.79997
83,76.32351
83.05,100.8206
83.1,126.2531
83.15,149.8179
83.2,169.0276
83.25,182.6212
83.3,188.2228
83.35,183.5687
83.4,171.1084
83.45,152.3339
83.5,130.2359
83.55,106.4065
83.6,83.76328
83.65,62.76566
83.7,45.81974
83.75,32.63237
83.8,22.93651
83.85,16.06241
83.9,10.84351
83.95,7.419568
84,5.367986
84.05,4.236563
84.1,3.122934
84.15,2.250828
84.2,1.478983
84.25,0.9363736
84.3,0.6150423
84.35,0.2502797
84.4,-0.0371738
84.45,-0.4188305
84.5,-0.6149598
84.55,-0.9517571
84.6,-1.459055
84.65,-1.479594
84.7,-1.438238
84.75,-1.405775
84.8,-1.356929
84.85,-1.520915
84.9,-1.703376
84.95,-1.836771
85,-1.772354
85.05,-1.809287
85.1,-1.851369
85.15,-1.77858
85.2,-1.911161
85.25,-1.968518
85.3,-2.115852
85.35,-2.147615
85.4,-2.170336
85.45,-2.231957
85.5,-2.255486
85.55,-2.330981
85.6,-2.434274
85.65,-2.419639
85.7,-2.606252
85.75,-2.603812
85.8,-2.589577
85.85,-2.45667
85.9,-2.428059
85.95,-2.611097
86,-2.525419
86.05,-2.586641
86.1,-2.642151
86.15,-2.572848
86.2,-2.585212
86.25,-2.710925
86.3,-2.733926
86.35,-2.701037
86.4,-2.770015
86.45,-2.699557
86.5,-2.44008
86.55,-2.500794
86.6,-2.49819
86.65,-2.525909
86.7,-2.591847
86.75,-2.485199
86.8,-2.59975
86.85,-2.642342
86.9,-2.759109
86.95,-2.971044
87,-2.935582
87.05,-2.859898
87.1,-2.662223
87.15,-2.648568
87.2,-2.669029
87.25,-2.915939
87.3,-3.181133
87.35,-3.080321
87.4,-2.875523
87.45,-2.596638
87.5,-2.154865
87.55,-1.431749
87.6,-0.3533084
87.65,1.685146
87.7,5.135772
87.75,10.22703
87.8,17.55389
87.85,26.80395
87.9,40.76631
87.95,58.00109
88,78.52982
88.05,101.3354
88.1,124.4544
88.15,146.9781
88.2,166.3427
88.25,180.6707
88.3,188.0464
88.35,191.1638
88.4,187.4005
88.45,176.6719
88.5,160.2338
88.55,139.772
88.6,116.3443
88.65,93.80487
88.7,74.22065
88.75,56.16376
88.8,41.65161
88.85,30.87899
88.9,22.61678
88.95,15.58604
89,10.83718
89.05,7.441119
89.1,5.321067
89.15,3.708202
89.2,2.179274
89.25,0.8296791
89.3,-6.640624E-02
89.35,-0.3733852
89.4,-0.4593761
89.45,-0.823633
89.5,-1.369544
89.55,-1.605199
89.6,-1.956467
89.65,-2.239531
89.7,-2.17849
89.75,-2.230982
89.8,-2.23275
89.85,-2.187785
89.9,-2.234724
89.95,-2.400898
90,-2.449901
90.05,-2.564867
90.1,-2.537702
90.15,-2.520434
90.2,-2.440525
90.25,-2.437922
90.3,-2.513398
90.35,-2.436221
90.4,-1.999921
90.45,-1.226074
90.5,-0.4195346
90.55,1.707758
90.6,5.208523
90.65,10.53266
90.7,17.76758
90.75,28.1234
90.8,41.10727
90.85,57.07375
90.9,75.36088
90.95,94.6755
91,115.7061
91.05,138.0244
91.1,158.731
91.15,173.1077
91.2,181.3958
91.25,183.8194
91.3,180.5252
91.35,172.9252
91.4,161.8002
91.45,145.6286
91.5,125.8985
91.55,106.0618
91.6,86.52695
91.65,68.90956
91.7,53.55773
91.75,40.8636
91.8,29.93474
91.85,21.99546
91.9,15.94682
91.95,10.96913
92,7.063811
92.05,4.615656
92.1,3.523066
92.15,2.408943
92.2,1.535342
92.25,0.6337095
92.3,-0.1801297
92.35,-0.6145595
92.4,-0.6015103
92.45,-0.7108274
92.5,-0.713114
92.55,-0.6319517
92.6,-1.072704
92.65,-1.465556
92.7,-1.752104
92.75,-1.971519
92.8,-1.966894
92.85,-2.107239
92.9,-2.13765
92.95,-2.241988
93,-2.344486
93.05,-2.33205
93.1,-2.273609
93.15,-2.481423
93.2,-2.73776
93.25,-2.839753
93.3,-2.94909
93.35,-2.969703
93.4,-2.683388
93.45,-2.644032
93.5,-2.716626
93.55,-2.874633
93.6,-2.947878
93.65,-3.064706
93.7,-2.825895
93.75,-2.586241
93.8,-2.609512
93.85,-2.668704
93.9,-2.533648
93.95,-2.495409
94,-2.661418
94.05,-2.770848
94.1,-3.0437
94.15,-3.130279
94.2,-3.074539
94.25,-2.935044
94.3,-2.88494
94.35,-2.597343
94.4,-1.940869
94.45,-1.225373
94.5,0.3224853
94.55,2.93966
94.6,6.591291
94.65,11.35899
94.7,17.69952
94.75,27.28022
94.8,38.22433
94.85,50.29898
94.9,65.6716
94.95,81.4444
95,99.80971
95.05,118.2132
95.1,134.4507
95.15,149.0225
95.2,163.0703
95.25,173.8342
95.3,176.9076
95.35,175.1418
95.4,170.695
95.45,163.7915
95.5,154.1251
95.55,141.4525
95.6,125.9041
95.65,109.7183
95.7,95.53288
95.75,81.17515
95.8,67.48156
95.85,55.14757
95.9,45.6825
95.95,37.73493
96,30.87576
96.05,25.13971
96.1,19.84504
96.15,15.46876
96.2,12.60782
96.25,10.18365
96.3,8.281543
96.35,7.076654
96.4,5.757053
96.45,4.497544
96.5,3.343324
96.55,2.266912
96.6,1.408652
96.65,1.209569
96.7,0.8769462
96.75,0.5872631
96.8,0.2420097
96.85,-0.2474805
96.9,-0.8397604
96.95,-1.117327
97,-1.299013
97.05,-1.568661
97.1,-1.459936
97.15,-1.600807
97.2,-2.061997
97.25,-2.280367
97.3,-2.338834
97.35,-2.451532
97.4,-2.516995
97.45,-2.603101
97.5,-2.972594
97.55,-3.002218
97.6,-2.705743
97.65,-2.556299
97.7,-2.481072
97.75,-2.416645
97.8,-2.678253
97.85,-2.85517
97.9,-2.626297
97.95,-2.507545
98,-2.491488
98.05,-2.601813
98.1,-2.788362
98.15,-2.942944
98.2,-3.035367
98.25,-3.121996
98.3,-3.192336
98.35,-3.324217
98.4,-3.408029
98.45,-3.280582
98.5,-3.517492
98.55,-3.64618
98.6,-3.529967
98.65,-3.340022
98.7,-3.130405
98.75,-2.96197
98.8,-2.838933
98.85,-2.883022
98.9,-3.189229
98.95,-3.179873
99,-3.23814
99.05,-3.275656
99.1,-3.240336
99.15,-3.218968
99.2,-3.316277
99.25,-3.456986
99.3,-3.315953
99.35,-3.418425
99.4,-3.516118
99.45,-3.320085
99.5,-3.259169
99.55,-3.322452
99.6,-3.666803
99.65,-3.698747
99.7,-3.69737
99.75,-3.590714
99.8,-3.178915
99.85,-3.10212
99.9,-3.232905
99.95,-3.184984
100,-2.957935
100.05,-2.793371
100.1,-2.31748
100.15,-1.744482
100.2,-0.7656025
100.25,0.680095
100.3,2.984035
100.35,6.468453
100.4,11.36296
100.45,18.27943
100.5,27.55117
100.55,39.6982
100.6,54.48178
100.65,72.19221
100.7,90.86285
100.75,110.259
100.8,129.8611
100.85,148.4722
100.9,168.4841
100.95,188.3726
101,202.668
101.05,211.8605
101.1,218.0484
101.15,218.3106
101.2,217.2243
101.25,213.2342
101.3,199.2857
101.35,181.0389
101.4,159.8497
101.45,137.4954
101.5,117.6793
101.55,99.72382
101.6,80.84613
101.65,65.0774
101.7,52.48228
101.75,41.83927
101.8,33.54604
101.85,24.97163
101.9,16.67162
101.95,10.86101
102,7.569192
102.05,5.764252
102.1,4.230758
102.15,2.904472
102.2,1.612918
102.25,0.9602621
102.3,0.7777672
102.35,0.240446
102.4,-0.8906304
102.45,-1.774351
102.5,-2.194288
102.55,-2.093018
102.6,-1.966222
102.65,-1.897949
102.7,-2.00399
102.75,-2.259207
102.8,-2.12035
102.85,-1.906081
102.9,-1.746296
102.95,-1.194907
103,-0.3621069
103.05,0.6832
103.1,2.191057
103.15,4.039248
103.2,7.426951
103.25,12.94467
103.3,21.19347
103.35,31.33265
103.4,43.63308
103.45,57.506
103.5,72.79069
103.55,89.78928
103.6,108.8044
103.65,129.7437
103.7,151.7556
103.75,172.5101
103.8,189.69
103.85,206.2195
103.9,217.8793
103.95,222.5775
104,222.4283
104.05,217.511
104.1,207.5547
104.15,198.1576
104.2,187.1056
104.25,171.8964
104.3,155.6825
104.35,137.976
104.4,120.4471
104.45,103.9505
104.5,86.62885
104.55,68.96541
104.6,54.07184
104.65,41.94939
104.7,33.52977
104.75,27.14068
104.8,20.782
104.85,15.76152
104.9,11.1852
104.95,7.26533
105,4.315575
105.05,2.350437
105.1,1.840468
105.15,1.609683
105.2,1.065821
105.25,0.6554754
105.3,0.3510038
105.35,0.2749576
105.4,0.1179402
105.45,-0.1855666
105.5,-0.3994782
105.55,-0.8055199
105.6,-1.379228
105.65,-1.659029
105.7,-1.456956
105.75,-1.211513
105.8,-0.9702377
105.85,-0.6311814
105.9,-0.664867
105.95,-0.3708035
106,-0.3423628
106.05,-0.3045316
106.1,-0.5782135
106.15,-1.141192
106.2,-1.174724
106.25,-1.040815
106.3,-0.770264
106.35,-0.2246873
106.4,-0.2306267
106.45,-0.891282
106.5,-1.229043
106.55,-1.219716
106.6,-1.032519
106.65,-1.191289
106.7,-1.688396
106.75,-1.703586
106.8,-1.409406
106.85,-1.390201
106.9,-1.334362
106.95,-1.341519
107,-1.492441
107.05,-1.397927
107.1,-1.677134
107.15,-2.257462
107.2,-2.4306
107.25,-2.24492
107.3,-2.022607
107.35,-1.871394
107.4,-2.298346
107.45,-2.891955
107.5,-3.055481
107.55,-2.969177
107.6,-2.600031
107.65,-2.297596
107.7,-2.322803
107.75,-2.392304
107.8,-2.384981
107.85,-2.231113
107.9,-2.084764
107.95,-1.754332
108,-1.769579
108.05,-1.293497
108.1,-0.5283412
108.15,0.0302569
108.2,0.3386637
108.25,0.9527733
108.3,1.333702
108.35,2.181328
108.4,4.577446
108.45,7.180475
108.5,10.12411
108.55,13.76798
108.6,19.08661
108.65,27.1437
108.7,36.74064
108.75,48.55923
108.8,59.00891
108.85,68.71085
108.9,76.48102
108.95,86.49181
109,99.06886
109.05,114.9884
109.1,133.4735
109.15,147.049
109.2,151.44
109.25,152.2298
109.3,152.6265
109.35,154.7135
109.4,164.2574
109.45,173.903
109.5,175.3635
109.55,171.2616
109.6,163.439
109.65,150.0157
109.7,135.9882
109.75,124.6871
109.8,112.3953
109.85,106.4131
109.9,101.4289
109.95,93.02233
110,81.26097
110.05,68.21166
110.1,54.38021
110.15,45.6994
110.2,39.24337
110.25,33.61454
110.3,28.65135
110.35,23.7807
110.4,21.04033
110.45,20.09589
110.5,17.44452
110.55,13.52188
110.6,9.226807
110.65,5.310769
110.7,4.611552
110.75,5.084612
110.8,5.056988
110.85,5.497043
110.9,5.181331
110.95,4.130415
111,3.713092
111.05,3.405762
111.1,2.902496
111.15,2.429167
111.2,1.043389
111.25,-0.5797393
111.3,-1.555288
111.35,-1.640697
111.4,-1.159667
111.45,-0.9850748
111.5,-1.580965
111.55,-1.686799
111.6,-1.672151
111.65,-0.9526475
111.7,-0.4048553
111.75,-0.354577
111.8,-0.150133
111.85,1.247465
111.9,3.062317
111.95,3.576309
112,3.812815
112.05,5.177422
112.1,8.220744
112.15,11.7501
112.2,13.98164
112.25,17.54734
112.3,20.97829
112.35,25.31043
112.4,31.3063
112.45,38.73461
112.5,44.78647
112.55,53.07245
112.6,59.06048
112.65,63.65438
112.7,68.3184
112.75,74.99934
112.8,82.10945
112.85,88.57288
112.9,93.51163
112.95,94.79736
113,95.18465
113.05,96.44624
113.1,95.49664
113.15,90.82065
113.2,89.71485
113.25,84.35195
113.3,76.27077
113.35,67.79411
113.4,58.04638
113.45,48.46656
113.5,46.64338
113.55,45.06576
113.6,40.46971
113.65,35.80939
113.7,30.3738
113.75,25.06668
113.8,22.34888
113.85,18.84768
113.9,14.79252
113.95,11.32879
114,8.024281
114.05,8.001624
114.1,7.030475
114.15,6.338357
114.2,4.945345
114.25,4.051727
114.3,3.139031
114.35,4.426082
114.4,5.094082
114.45,3.611719
114.5,1.371187
114.55,-0.6912222
114.6,-1.553935
114.65,-1.487142
114.7,-1.062732
114.75,-0.9970288
114.8,-1.079669
114.85,-0.8205531
114.9,-1.081202
114.95,-1.631937
115,-2.175503
115.05,-2.048154
115.1,-1.251858
115.15,-0.5881704
115.2,-0.5508168
115.25,-1.473159
115.3,-2.128801
115.35,-1.795606
115.4,-0.8575233
115.45,-0.6281766
115.5,-0.7685544
115.55,-1.648789
115.6,-2.356383
115.65,-2.703017
115.7,-2.455489
115.75,-1.883376
115.8,-1.46428
115.85,-1.401232
115.9,-1.871799
115.95,-2.463446
116,-3.083018
116.05,-2.821784
116.1,-2.45667
116.15,-2.668572
116.2,-2.987903
116.25,-3.859421
116.3,-4.229612
116.35,-3.975708
116.4,-3.696503
116.45,-3.401481
116.5,-3.54988
116.55,-3.47833
116.6,-3.099376
116.65,-3.13902
116.7,-3.459617
116.75,-3.278284
116.8,-3.335518
116.85,-3.086104
116.9,-2.730206
116.95,-2.986475
117,-3.728933
117.05,-4.285557
117.1,-4.375062
117.15,-4.191431
117.2,-3.970262
117.25,-4.318585
117.3,-4.716453
117.35,-4.994569
117.4,-4.762306
117.45,-4.403129
117.5,-4.498221
117.55,-4.629505
117.6,-4.727685
117.65,-4.359236
117.7,-4.244281
117.75,-4.072984
117.8,-3.985729
117.85,-4.219738
117.9,-4.538049
117.95,-4.644635
118,-4.860797
118.05,-5.020727
118.1,-4.605262
118.15,-4.450678
118.2,-4.492826
118.25,-4.703751
118.3,-4.952012
118.35,-5.165574
118.4,-5.026508
118.45,-4.854851
118.5,-4.750477
118.55,-4.77996
118.6,-5.147407
118.65,-5.114357
118.7,-4.778866
118.75,-4.557713
118.8,-4.206022
118.85,-4.345393
118.9,-4.437869
118.95,-4.504576
119,-4.362741
119.05,-4.537204
119.1,-4.811587
119.15,-4.973193
119.2,-5.156657
119.25,-5.199675
119.3,-5.145536
119.35,-5.17616
119.4,-5.234169
119.45,-5.193709
119.5,-5.058795
119.55,-5.069626
119.6,-5.169101
119.65,-5.064437
119.7,-5.12118
119.75,-5.233007
119.8,-5.206675
119.85,-5.233507
119.9,-5.308436
119.95,-5.34669
120,-5.261234
120.05,-5.151312
120.1,-5.026498
120.15,-4.632232
120.2,-4.691187
120.25,-4.825674
120.3,-4.973055
120.35,-5.059717
120.4,-5.195736
120.45,-5.187657
120.5,-5.110505
120.55,-5.042611
120.6,-4.690176
120.65,-4.400168
120.7,-4.528494
120.75,-4.754821
120.8,-4.960573
120.85,-4.825505
120.9,-4.566169
120.95,-4.641741
121,-4.868329
121.05,-5.266083
121.1,-5.374032
121.15,-5.137748
121.2,-5.008106
121.25,-5.193039
121.3,-5.250779
121.35,-5.20315
121.4,-5.278984
121.45,-5.349597
121.5,-5.350463
121.55,-5.478878
121.6,-5.460303
121.65,-5.352785
121.7,-5.360525
121.75,-5.382858
121.8,-5.366826
121.85,-5.303424
121.9,-5.344851
121.95,-5.313335
122,-5.047414
122.05,-5.155526
122.1,-5.155783
122.15,-5.167498
122.2,-5.21019
122.25,-5.365796
122.3,-5.352742
122.35,-5.193829
122.4,-5.163855
122.45,-5.226406
122.5,-5.323288
122.55,-5.323288
122.6,-5.323288
122.65,-5.323288
122.7,-5.323288
122.75,-5.323288
122.8,-5.323288
122.85,-5.323288
122.9,-5.323288
122.95,-5.323288
123,-5.323288
123.05,-5.323288
123.1,-5.323288
123.15,-5.323288
123.2,-5.323288
123.25,-5.323288
123.3,-5.323288
123.35,-5.323288
123.4,-5.323288
123.45,-5.323288
123.5,-5.323288
123.55,-5.323288
123.6,-5.323288
123.65,-5.323288
123.7,-5.323288
123.75,-5.323288
123.8,-5.323288
123.85,-5.323288
123.9,-5.323288
123.95,-5.323288
124,-5.323288
124.05,-5.323288
124.1,-5.323288
124.15,-5.323288
124.2,-5.323288
124.25,-5.323288
124.3,-5.323288
124.35,-5.323288
124.4,-5.323288
124.45,-5.323288
124.5,-5.323288
124.55,-5.323288
124.6,-5.323288
124.65,-5.323288
124.7,-5.323288
124.75,-5.323288
124.8,-5.323288
124.85,-5.323288
124.9,-5.323288
124.95,-5.323288
125,-5.323288
125.05,-5.323288
125.1,-5.323288
125.15,-5.323288
125.2,-5.323288
125.25,-5.323288
125.3,-5.323288
125.35,-5.323288
125.4,-5.323288
125.45,-5.323288
125.5,-5.323288
125.55,-5.323288
125.6,-5.323288
125.65,-5.323288
125.7,-5.323288
125.75,-5.323288
125.8,-5.323288
125.85,-5.323288
125.9,-5.323288
125.95,-5.323288
126,-5.323288
126.05,-5.323288
126.1,-5.323288
126.15,-5.323288
126.2,-5.323288
126.25,-5.323288
126.3,-5.323288
126.35,-5.323288
126.4,-5.323288
126.45,-5.323288
126.5,-5.323288
126.55,-5.323288
126.6,-5.323288
126.65,-5.323288
126.7,-5.323288
126.75,-5.323288
126.8,-5.323288
126.85,-5.323288
126.9,-5.323288
126.95,-5.323288
127,-5.323288
127.05,-5.323288
127.1,-5.323288
127.15,-5.323288
127.2,-5.323288
127.25,-5.323288
127.3,-5.323288
127.35,-5.323288
127.4,-5.323288
127.45,-5.323288
127.5,-5.323288
127.55,-5.323288
127.6,-5.323288
127.65,-5.323288
127.7,-5.323288
127.75,-5.323288
127.8,-5.323288
127.85,-5.323288
127.9,-5.323288
127.95,-5.323288
128,-5.323288
128.05,-5.323288
128.1,-5.323288
128.15,-5.323288
128.2,-5.323288
128.25,-5.323288
128.3,-5.323288
128.35,-5.323288
128.4,-5.323288
128.45,-5.323288
128.5,-5.323288
128.55,-5.323288
128.6,-5.323288
128.65,-5.323288
128.7,-5.323288
128.75,-5.323288
128.8,-5.323288
128.85,-5.323288
128.9,-5.323288
128.95,-5.323288
129,-5.323288
129.05,-5.323288
129.1,-5.323288
129.15,-5.323288
129.2,-5.323288
129.25,-5.323288
129.3,-5.323288
129.35,-5.323288
129.4,-5.323288
129.45,-5.323288
129.5,-5.323288
129.55,-5.323288
129.6,-5.323288
129.65,-5.323288
129.7,-5.323288
129.75,-5.323288
129.8,-5.323288
129.85,-5.323288
129.9,-5.323288
129.95,-5.323288
130,-5.323288
130.05,-5.323288
130.1,-5.323288
130.15,-5.323288
130.2,-5.323288
130.25,-5.323288
130.3,-5.323288
130.35,-5.323288
130.4,-5.323288
130.45,-5.323288
130.5,-5.323288
130.55,-5.323288
130.6,-5.323288
130.65,-5.323288
130.7,-5.323288
130.75,-5.323288
130.8,-5.323288
130.85,-5.323288
130.9,-5.323288
130.95,-5.323288
131,-5.323288
131.05,-5.323288
131.1,-5.323288
131.15,-5.323288
131.2,-5.323288
131.25,-5.323288
131.3,-5.323288
131.35,-5.323288
131.4,-5.323288
131.45,-5.323288
131.5,-5.323288
131.55,-5.323288
131.6,-5.323288
131.65,-5.323288
131.7,-5.323288
131.75,-5.323288
131.8,-5.323288
131.85,-5.323288
131.9,-5.323288
131.95,-5.323288
132,-5.323288
132.05,-5.323288
132.1,-5.323288
132.15,-5.323288
132.2,-5.323288
132.25,-5.323288
132.3,-5.323288
132.35,-5.323288
132.4,-5.323288
132.45,-5.323288
132.5,-5.323288
132.55,-5.323288
132.6,-5.323288
132.65,-5.323288
132.7,-5.323288
132.75,-5.323288
132.8,-5.323288
132.85,-5.323288
132.9,-5.323288
132.95,-5.323288
133,-5.323288
133.05,-5.323288
133.1,-5.323288
133.15,-5.323288
133.2,-5.323288
133.25,-5.323288
133.3,-5.323288
133.35,-5.323288
133.4,-5.323288
133.45,-5.323288
133.5,-5.323288
133.55,-5.323288
133.6,-5.323288
133.65,-5.323288
133.7,-5.323288
133.75,-5.323288
133.8,-5.323288
133.85,-5.323288
133.9,-5.323288
133.95,-5.323288
134,-5.323288
134.05,-5.323288
134.1,-5.323288
134.15,-5.323288
134.2,-5.323288
134.25,-5.323288
134.3,-5.323288
134.35,-5.323288
134.4,-5.323288
134.45,-5.323288
134.5,-5.323288
134.55,-5.323288
134.6,-5.323288
134.65,-5.323288
134.7,-5.323288
134.75,-5.323288
134.8,-5.323288
134.85,-5.323288
134.9,-5.323288
134.95,-5.323288
135,-5.323288
135.05,-5.323288
135.1,-5.323288
135.15,-5.323288
135.2,-5.323288
135.25,-5.323288
135.3,-5.323288
135.35,-5.323288
135.4,-5.323288
135.45,-5.323288
135.5,-5.323288
135.55,-5.323288
135.6,-5.323288
135.65,-5.323288
135.7,-5.323288
135.75,-5.323288
135.8,-5.323288
135.85,-5.323288
135.9,-5.323288
135.95,-5.323288
136,-5.323288
136.05,-5.323288
136.1,-5.323288
136.15,-5.323288
136.2,-5.323288
136.25,-5.323288
136.3,-5.323288
136.35,-5.323288
136.4,-5.323288
136.45,-5.323288
136.5,-5.323288
136.55,-5.323288
136.6,-5.323288
136.65,-5.323288
136.7,-5.323288
136.75,-5.323288
136.8,-5.323288
136.85,-5.323288
136.9,-5.323288
136.95,-5.323288
137,-5.323288
137.05,-5.323288
137.1,-5.323288
137.15,-5.323288
137.2,-5.323288
137.25,-5.323288
137.3,-5.323288
137.35,-5.323288
137.4,-5.323288
137.45,-5.323288
137.5,-5.323288
137.55,-5.323288
137.6,-5.323288
137.65,-5.323288
137.7,-5.323288
137.75,-5.323288
137.8,-5.323288
137.85,-5.323288
137.9,-5.323288
137.95,-5.323288
138,-5.323288
 
Alignment,On
